Date:	Wed, Nov 13, 2013		
measured by:	Rotem		
Si-H, freshly cleaned. Low resistivity, measurement started 3:30 min after etch.
24W 34W 38W jump			
Time [s]	CPD stream	Light	SPV
0.000000	-598.470000		
0.500000	-598.722000		
1.001000	-598.626000		
1.501000	-598.617000		
2.001000	-598.503000		
2.501000	-598.191000		
3.001000	-597.948000		
3.501000	-598.121000		
4.001000	-597.934000		
4.501000	-597.725000		
5.000000	-597.590000		
5.501000	-597.472000		
6.000000	-597.494000		
6.501000	-597.347000		
7.001000	-597.038000		
7.501000	-597.189000		
8.001000	-597.104000		
8.500000	-597.140000		
9.001000	-597.132000		
9.501000	-597.322000		
10.001000	-597.441000		
10.501000	-597.846000		
11.001000	-598.136000		
11.501000	-598.647000		
12.001000	-598.696000		
12.501000	-598.235000		
13.001000	-598.120000		
13.501000	-598.306000		
14.001000	-598.574000		
14.501000	-598.172000		
15.001000	-598.159000		
15.501000	-597.675000		
16.001000	-597.103000		
16.501000	-596.803000		
17.001000	-596.606000		
17.501000	-596.545000		
18.001000	-596.574000		
18.501000	-596.476000		
19.001000	-596.488000		
19.501000	-596.566000		
20.001000	-596.512000		
20.501000	-596.577000		
21.001000	-596.555000		
21.501000	-596.627000		
22.001000	-596.644000		
22.501000	-596.642000		
23.001000	-596.648000		
23.501000	-596.321000		
24.001000	-596.504000		
24.501000	-596.355000		
25.001000	-596.297000		
25.501000	-596.532000		
26.001000	-596.599000		
26.501000	-596.635000		
27.001000	-596.978000		
27.501000	-597.156000		
28.001000	-597.158000		
28.501000	-597.153000		
29.001000	-597.116000		
29.501000	-596.816000		
30.001000	-596.733000		
30.501000	-596.566000		
31.001000	-596.375000		
31.501000	-596.300000		
32.001000	-596.106000		
32.501000	-596.177000		
33.001000	-596.440000		
33.501000	-596.487000		
34.001000	-596.745000		
34.501000	-596.726000		
35.001000	-596.842000		
35.501000	-596.811000		
36.001000	-596.620000		
36.501000	-596.263000		
37.001000	-596.216000		
37.501000	-596.324000		
38.001000	-596.318000		
38.501000	-595.875000		
39.001000	-595.685000		
39.501000	-595.987000		
40.001000	-596.205000		
40.501000	-596.164000		
41.001000	-596.283000		
41.501000	-596.094000		
42.001000	-595.991000		
42.501000	-595.870000		
43.001000	-595.581000		
43.501000	-595.515000		
44.001000	-595.660000		
44.501000	-595.988000		
45.001000	-596.319000		
45.501000	-596.631000		
46.001000	-596.557000		
46.501000	-596.549000		
47.001000	-596.398000		
47.501000	-596.232000		
48.001000	-596.201000		
48.501000	-596.179000		
49.001000	-596.021000		
49.501000	-595.962000		
50.001000	-596.031000		
50.501000	-595.964000		
51.001000	-596.062000		
51.501000	-595.638000		
52.001000	-595.537000		
52.501000	-595.211000		
53.001000	-595.032000		
53.501000	-595.450000		
54.001000	-595.565000		
54.501000	-595.999000		
55.001000	-595.780000		
55.501000	-595.746000		
56.001000	-595.633000		
56.501000	-595.346000		
57.001000	-595.424000		
57.501000	-595.367000		
58.001000	-595.861000		
58.501000	-596.274000		
59.001000	-596.153000		
59.501000	-595.909000		
60.001000	-595.706000		
60.501000	-595.304000		
61.001000	-595.107000		
61.501000	-594.848000		
62.001000	-594.839000		
62.500000	-595.001000		
63.000000	-595.384000		
63.500000	-595.328000		
64.000000	-595.475000		
64.500000	-595.200000		
65.001000	-594.714000		
65.501000	-594.751000		
66.001000	-594.838000		
66.501000	-595.065000		
67.001000	-595.034000		
67.501000	-595.139000		
68.001000	-595.158000		
68.501000	-595.296000		
69.001000	-595.154000		
69.501000	-595.087000		
70.001000	-595.403000		
70.501000	-595.152000		
71.001000	-595.252000		
71.501000	-595.156000		
72.001000	-594.831000		
72.501000	-594.786000		
73.001000	-594.576000		
73.501000	-595.016000		
74.001000	-595.150000		
74.501000	-595.324000		
75.001000	-595.127000		
75.501000	-594.873000		
76.001000	-594.922000		
76.501000	-594.745000		
77.001000	-594.979000		
77.501000	-594.780000		
78.001000	-594.405000		
78.501000	-594.306000		
79.001000	-594.370000		
79.501000	-594.467000		
80.001000	-594.212000		
80.501000	-594.513000		
81.001000	-594.589000		
81.501000	-594.642000		
82.001000	-594.648000		
82.501000	-594.879000		
83.001000	-594.301000		
83.501000	-594.172000		
84.001000	-594.446000		
84.501000	-594.553000		
85.001000	-594.694000		
85.501000	-594.499000		
86.001000	-594.359000		
86.501000	-594.052000		
87.001000	-594.239000		
87.501000	-594.385000		
88.001000	-594.347000		
88.501000	-594.332000		
89.001000	-594.444000		
89.501000	-594.148000		
90.001000	-593.963000		
90.501000	-594.534000		
91.001000	-594.262000		
91.501000	-593.810000		
92.001000	-593.374000		
92.501000	-593.634000		
93.001000	-594.035000		
93.501000	-594.280000		
94.001000	-594.332000		
94.501000	-594.118000		
95.001000	-594.023000		
95.501000	-593.982000		
96.001000	-593.583000		
96.501000	-593.684000		
97.001000	-594.206000		
97.501000	-594.380000		
98.001000	-594.025000		
98.501000	-593.444000		
99.001000	-593.546000		
99.501000	-593.780000		
100.001000	-593.604000		
100.501000	-593.399000		
101.001000	-593.305000		
101.501000	-592.984000		
102.001000	-593.275000		
102.501000	-593.503000		
103.001000	-593.373000		
103.501000	-593.100000		
104.001000	-592.766000		
104.501000	-592.703000		
105.001000	-592.932000		
105.501000	-593.444000		
106.001000	-593.643000		
106.501000	-593.290000		
107.001000	-593.271000		
107.501000	-593.229000		
108.001000	-593.250000		
108.501000	-593.246000		
109.001000	-593.163000		
109.501000	-592.964000		
110.001000	-593.107000		
110.501000	-593.320000		
111.001000	-593.537000		
111.501000	-593.397000		
112.001000	-593.265000		
112.501000	-593.107000		
113.001000	-593.149000		
113.501000	-593.153000		
114.001000	-593.534000		
114.501000	-593.705000		
115.001000	-593.166000		
115.501000	-592.907000		
116.001000	-592.978000		
116.501000	-593.034000		
117.001000	-592.975000		
117.501000	-593.019000		
118.001000	-592.802000		
118.501000	-592.694000		
119.001000	-593.014000		
119.501000	-593.162000		
120.001000	-593.267000		
120.501000	-592.905000		
121.001000	-592.595000		
121.501000	-592.774000		
122.001000	-592.909000		
122.501000	-592.758000		
123.001000	-592.863000		
123.501000	-592.898000		
124.001000	-593.065000		
124.501000	-593.264000		
125.001000	-593.277000		
125.501000	-593.153000		
126.001000	-592.986000		
126.501000	-592.917000		
127.001000	-592.955000		
127.501000	-593.017000		
128.001000	-592.506000		
128.501000	-592.398000		
129.001000	-592.645000		
129.501000	-593.131000		
130.001000	-593.463000		
130.501000	-593.478000		
131.001000	-593.088000		
131.501000	-592.842000		
132.001000	-592.722000		
132.501000	-592.708000		
133.001000	-592.449000		
133.501000	-592.301000		
134.001000	-592.542000		
134.501000	-593.398000		
135.001000	-594.884000		
135.501000	-596.845000		
136.001000	-598.879000		
136.501000	-601.220000		
137.001000	-603.123000		
137.501000	-605.402000		
138.001000	-607.433000		
138.501000	-608.710000		
139.001000	-609.629000		
139.501000	-611.101000		
140.001000	-612.523000		
140.501000	-613.723000		
141.001000	-614.603000		
141.501000	-615.180000		
142.001000	-615.879000		
142.501000	-616.395000		
143.001000	-617.045000		
143.501000	-617.814000		
144.001000	-618.552000		
144.501000	-619.110000		
145.001000	-619.407000		
145.501000	-619.671000		
146.001000	-619.569000		
146.501000	-619.802000		
147.001000	-620.412000		
147.501000	-620.750000		
148.001000	-620.894000		
148.501000	-621.154000		
149.001000	-620.971000		
149.501000	-620.883000		
150.001000	-620.832000		
150.501000	-621.083000		
151.001000	-621.616000		
151.501000	-621.868000		
152.001000	-622.231000		
152.501000	-621.903000		
153.001000	-622.049000		
153.501000	-622.108000		
154.001000	-622.301000		
154.501000	-622.320000		
155.001000	-622.186000		
155.501000	-622.679000		
156.001000	-622.967000		
156.501000	-623.104000		
157.001000	-623.424000		
157.501000	-623.576000		
158.001000	-623.342000		
158.501000	-623.417000		
159.001000	-623.258000		
159.501000	-623.056000		
160.001000	-623.099000		
160.501000	-623.433000		
161.001000	-623.575000		
161.501000	-623.758000		
162.001000	-624.113000		
162.501000	-624.227000		
163.001000	-624.128000		
163.501000	-623.948000		
164.001000	-623.367000		
164.501000	-623.280000		
165.001000	-623.046000		
165.501000	-623.202000		
166.001000	-623.347000		
166.501000	-623.078000		
167.001000	-623.444000		
167.501000	-623.809000		
168.001000	-623.727000		
168.501000	-623.730000		
169.001000	-623.559000		
169.501000	-623.817000		
170.001000	-623.794000		
170.501000	-623.474000		
171.001000	-623.202000		
171.501000	-623.098000		
172.001000	-623.285000		
172.501000	-623.516000		
173.001000	-623.708000		
173.501000	-624.124000		
174.001000	-624.097000		
174.501000	-624.486000		
175.001000	-624.464000		
175.501000	-624.501000		
176.001000	-624.122000		
176.501000	-624.064000		
177.001000	-623.911000		
177.501000	-624.371000		
178.001000	-624.402000		
178.501000	-624.605000		
179.001000	-624.841000		
179.501000	-625.354000		
180.001000	-625.884000		
180.501000	-626.379000		
181.001000	-626.837000		
181.501000	-626.783000		
182.001000	-626.642000		
182.501000	-626.480000		
183.001000	-626.564000		
183.501000	-626.425000		
184.001000	-626.652000		
184.501000	-626.648000		
185.001000	-626.444000		
185.501000	-626.637000		
186.001000	-626.924000		
186.501000	-626.891000		
187.001000	-626.797000		
187.501000	-626.631000		
188.001000	-626.835000		
188.501000	-626.827000		
189.001000	-626.530000		
189.501000	-626.333000		
190.001000	-626.317000		
190.501000	-626.329000		
191.001000	-626.398000		
191.501000	-626.293000		
192.001000	-626.718000		
192.501000	-626.710000		
193.001000	-626.874000		
193.501000	-626.928000		
194.000000	-626.607000		
194.501000	-626.373000		
195.000000	-625.960000		
195.500000	-625.740000		
196.000000	-625.588000		
196.500000	-625.383000		
197.000000	-625.029000		
197.501000	-624.815000		
198.001000	-624.820000		
198.501000	-624.699000		
199.001000	-624.646000		
199.501000	-624.867000		
200.001000	-624.878000		
200.501000	-624.899000		
201.001000	-624.837000		
201.501000	-625.032000		
202.001000	-625.441000		
202.501000	-625.414000		
203.001000	-625.489000		
203.501000	-625.535000		
204.001000	-625.202000		
204.501000	-625.035000		
205.001000	-624.638000		
205.501000	-624.307000		
206.001000	-624.213000		
206.501000	-624.062000		
207.001000	-624.184000		
207.501000	-624.085000		
208.001000	-624.001000		
208.501000	-623.844000		
209.001000	-623.516000		
209.501000	-623.279000		
210.001000	-622.904000		
210.501000	-622.842000		
211.001000	-622.998000		
211.501000	-623.118000		
212.001000	-623.010000		
212.501000	-622.490000		
213.001000	-622.366000		
213.501000	-621.940000		
214.001000	-621.680000		
214.501000	-621.414000		
215.001000	-621.105000		
215.501000	-620.636000		
216.001000	-620.205000		
216.501000	-620.183000		
217.001000	-620.160000		
217.501000	-620.372000		
218.001000	-620.247000		
218.501000	-620.205000		
219.001000	-620.042000		
219.501000	-620.148000		
220.001000	-619.938000		
220.501000	-619.729000		
221.001000	-619.545000		
221.501000	-619.784000		
222.001000	-619.854000		
222.501000	-619.785000		
223.001000	-619.328000		
223.501000	-618.796000		
224.001000	-618.860000		
224.501000	-619.273000		
225.001000	-619.283000		
225.501000	-619.231000		
226.001000	-618.794000		
226.501000	-619.125000		
227.001000	-619.341000		
227.501000	-619.368000		
228.001000	-619.012000		
228.501000	-618.909000		
229.001000	-618.988000		
229.501000	-618.756000		
230.001000	-618.675000		
230.501000	-618.630000		
231.001000	-618.771000		
231.501000	-618.795000		
232.001000	-618.698000		
232.501000	-618.517000		
233.001000	-618.787000		
233.501000	-618.458000		
234.001000	-618.188000		
234.501000	-618.210000		
235.001000	-618.153000		
235.501000	-617.612000		
236.001000	-617.548000		
